5/10/2023	11:23:26 AM

Pc[W]	Q0	Eacc[MV/m]	He_temp[K]
0.584	9747194792.868	7.026	2.001600
15042.851799	347.028507	399.846133	6451.748604	7346.628840	7175.219780	6027.935116	401.219105	7463.053291	105156.188302	6218.560965	6678.016861	6897.565617	6253.119187	10109.553227	7278.454230
6573.086152	9686.971576	6140.352682	5878.856253	7273.941807	9616.781352	7888.002421	382.601513	5846.964684	5667.789129	6770.592900	6105.407796	6591.388000	9951.754509	5948.980223	6023.343483
372.859108	9768.748110	11255.038475	6238.302715	5334.045288	6295.742414	5565.812429	6245.191893	408.438161	6064.138511	448.666306	6404.615371	79732.405759	6206.082983	56524.650062	8468.587458
5908.002549	372.770150	5928.032893	7580.365077	7466.728868	9037.502638	6009.526198	6174.378962	6183.285210	5952.935217	418.552923	6099.827348	6456.999781	6075.762689	6877.357854	8664.600724
9690.207286	9573.784802	400.374313	5357.303906	9282.057169	5991.476437	6149.593523	351.753198	6791.751919	353.703288	9603.545470	10239.348051	372.681197	9102.558854	5148.272646	6382.934030
11910.110828	7116.533432	6895.728063	346.964554	6757.183258	356.038102	6668.538851	6883.779103	7017.986310	7319.836238	394.820674	6134.369933	6098.223031	379.142873	10163.784550	5906.026672
105134.005878	7414.425905	9437.877100	6577.504464	8047.020036	6544.207215	5727.121567	7177.336765	9331.761484	6379.597266	6242.153426	10135.630643	409.949234	6630.989471	9516.624953	8455.511722
105141.398980	9047.152003	9200.026908	5825.427233	6285.246296	5699.819692	9458.195970	393.941195	6766.899549	6143.769030	6170.769432	9038.378912	5883.681738	6375.436854	8481.541151	5944.200912
374.445938	6048.310332	8262.772226	6055.529902	6193.373890	6138.491220	421.773081	449.538180	6326.239309	9071.355183	6506.463530	6541.224893	6236.188414	6965.269676	6511.237090	8772.814003
384.837870	6509.984928	9109.512444	408.816502	11518.100501	384.999291	10059.326262	438.589523	7531.000617	398.217728	6201.670921	5330.480415	6139.116423	6568.500731	6941.051971	396.708651
105136.470130	613.021195	6498.257789	8472.197331	6565.786196	6684.518213	9570.160094	382.324980	6460.698944	6370.668218	11763.552017	6318.994775	6525.917217	105143.863578	105131.541742	105146.328291
8893.412943	9200.508229	351.094999	9713.324218	5665.540581	9922.072666	9703.496365	390.069673	374.864589	388.529186	8513.228515	6893.319194	6765.860411	7612.068205	6112.541765	365.799813
7093.400046	6609.115628	6690.439735	6060.386409	13491.852384	6946.830157	6786.068328	368.312512	320.180382	481.818076	7597.717382	5976.816309	5871.041681	5705.648631	5395.846724	9121.626403
414.101514	414.842953	6297.799232	6239.694859	10217.926094	6269.067917	5580.702195	6503.295396	6138.521805	6161.304620	10662.637421	5982.993189	6170.128947	6017.504153	496.385129	619.555451
9261.498432	10040.671313	6141.315237	6299.108226	9212.059794	422.565331	7736.966689	340.105733	7561.868934	7002.106219	10039.746512	6234.414677	6106.788808	6075.967318	6272.036636	9875.812515
381.825763	404.748422	7387.729411	9434.206513	6600.670160	6855.056892	6658.350520	9185.317245	8945.553038	381.585117	6321.530764	688.489133	105141.398980	7014.051496	6865.485398	8145.846098
6173.721555	6300.741719	6257.088675	2305.899136	5804.184434	6321.173110	6716.598434	425.152098	6747.805982	7693.549171	333.287576	7231.106726	5651.743512	5806.936202	6361.387486	7135.262824
7320.134790	10953.781108	6978.838390	6420.649666	397.967735	887.946962	9243.139322	6499.789953	6947.629939	6276.844268	14304.687912	9482.522495	9505.002806	5398.389048	7467.224782	412.134630
6649.142129	6102.854837	6470.647439	6221.942669	9913.309206	10729.061106	7406.336791	6796.347364	406.254492	7067.015458	10630.845818	6626.489917	10404.161838	5898.195506	5516.297928	105156.820935
6495.427330	6951.723414	6002.020318	6461.930292	9597.520683	8150.089635	5954.248640	105144.495848	6400.144218	6867.576274	9487.597312	7601.272077	6992.637333	343.575363	363.549740	374.263912
7126.782369	5962.591746	10288.891307	6282.850516	6529.755029	6357.720092	6247.757208	6059.635516	5765.671644	5603.210593	5965.280288	6166.209976	6722.527703	6012.387989	9658.068499	6366.017802
5971.557769	5900.806801	341.786522	6009.279122	6001.780903	6285.004604	7676.718174	6249.494090	405.494454	407.287858	9805.645370	9939.059345	7681.613513	6660.992980	5353.925542	352.294392
7162.627578	397.034492	6443.702776	371.740731	6328.453137	7200.217479	7076.252090	342.155494	6621.172049	389.068310	410.227227	6174.407923	7733.632353	8006.169581	7396.376550	7085.358492
105154.355687	584.831150	387.793876	7211.722392	9213.706074	7664.565892	416.644549	6099.834397	8878.940538	361.223407	9500.567566	5533.143798	8341.234013	6182.832595	9950.340492	369.308150
386.707028	371.081571	6263.305230	6425.643853	6600.684497	368.514642	6770.838587	398.293640	380.342131	6395.502077	6809.340713	5923.764226	6977.639589	6474.318049	374.344122	390.619965
5595.874574	6593.533143	7388.569814	378.693261	388.515875	9678.175257	5846.854538	6415.526054	335.072213	7864.153939	7691.480922	7619.624337	6376.753320	374.745176	6639.685935	385.600759
5870.060452	8937.028659	6593.511678	5738.042638	6011.542506	6944.169005	7119.096639	6637.383956	8085.810403	6373.268132	6471.439341	7392.837115	6420.188196	7635.939195	351.138492	555.290149
6448.500622	5988.924633	6518.600005	5829.155805	9318.484813	6321.295127	6229.700758	6602.013445	10006.084401	9221.516660	5516.916822	396.614855	5666.178760	7315.679677	9184.702446	6476.893283
6140.684950	6520.536862	10040.781594	9646.385978	6827.467263	7078.791893	10615.452812	6435.709694	19677.698072	7586.253496	6889.234762	6643.998765	9666.840219	20372.434223	5721.229621	6138.585112
9583.322873	8006.355754	7395.413916	6318.457258	6803.722095	6239.452620	5686.469478	7131.034252	6445.708290	6172.452929	6355.290696	5889.875019	6591.304663	371.242004	370.225225	6059.358084
381.518660	6644.810346	374.058350	379.361656	6784.666513	836.216087	381.928705	447.147784	7764.776488	6807.250007	6415.463038	6790.569669	11677.351069	7426.926083	105154.355687	610.579440
6531.833538	7691.179159	6014.996265	9136.286493	406.306143	6489.579438	5813.105985	926.164727	6427.469407	5975.730256	105142.031177	7994.290096	6097.337262	6934.734483	9962.468881	384.807614
7048.318466	10204.983387	393.622409	9457.465922	9547.673719	10262.179105	8736.032341	6418.203343	9508.669808	9135.189959	9703.163397	9407.151180	6022.074930	7755.514303	694.405739	6163.082885
6012.750081	409.373634	6687.318737	5924.625092	6676.905546	6048.052581	6654.833176	5518.432727	6598.535828	10050.322286	6204.075459	9272.868705	6173.108860	6940.738263	7346.652859	350.634581
7136.308473	7257.187916	10110.088655	9462.840323	6040.977807	6396.042580	6686.206725	517.761154	7105.807074	6055.927058	6901.989155	10052.192376	6749.250223	381.937659	10382.514884	8824.103677
6524.512696	6181.950188	6022.658886	6847.923248	7219.815814	378.630798	6310.515261	369.262558	6504.941266	7290.819517	7091.116439	6401.738184	5532.600993	7299.713352	389.219624	337.494586
