5/10/2023	11:32:15 AM

Pc[W]	Q0	Eacc[MV/m]	He_temp[K]
1.013	1030669404.150	3.008	2.001700
15040.780242	345.745329	404.177851	6461.542663	7345.512800	7170.012241	5920.449474	387.984538	7188.864252	105156.288561	6215.197918	6674.493660	6891.717004	6249.355016	10108.840891	7277.257879
6576.461632	9691.954296	6144.770290	5882.872543	7274.750898	9613.100517	7883.677589	380.836887	5847.130693	5668.275793	6722.552468	6098.193876	6585.217684	9951.042006	5947.461727	6025.996464
377.512185	9769.800178	11253.444893	6241.196694	5335.815075	6294.625293	5562.448839	6244.957206	406.914526	6063.582731	446.661251	6402.054398	79087.978324	6204.404294	58454.123507	8462.739519
5914.586631	375.497899	5928.198957	7581.334891	7467.056865	9034.783796	6006.804406	6171.015952	6176.552522	5946.684517	416.306917	6096.624540	6457.808149	6075.928913	6886.830295	8665.732030
9688.852891	9541.305848	399.492282	5358.432190	9280.060628	6003.194449	6147.834726	347.742660	6796.731877	349.933140	9599.142665	10239.117155	373.965002	9105.696308	5153.652628	6385.025966
11268.241762	7115.176680	6894.611566	343.916407	6753.579576	355.557091	6662.287806	6883.063624	7015.827028	7340.860196	393.457386	6136.701870	6096.865181	380.186159	10185.452971	5913.813215
105134.106117	7410.181349	9432.992717	6575.023993	8039.405440	6544.614551	5723.998326	7172.610112	9332.011056	6379.362690	6243.603394	10137.164403	414.602674	6632.279394	9518.719584	8453.273642
105141.499225	9048.524422	9196.506028	5821.983032	6277.390608	5694.611602	9454.995987	393.379943	6773.082601	6143.935322	6174.705695	9039.992030	5883.206032	6376.806630	8478.982158	5940.997354
370.676163	6043.743703	8264.223918	6049.920453	6188.727400	6135.448880	416.318824	448.415565	6325.202465	9074.492387	6509.196871	6542.915814	6239.483662	6964.073111	6511.885052	8771.378453
386.522606	6505.018002	9104.226527	406.811314	11512.898322	384.357858	10056.768712	438.910841	7529.644037	404.395141	6202.799904	5332.170025	6138.400318	6564.335392	6936.084988	394.784036
105136.570371	607.326341	6495.937732	8468.194441	6564.188069	6686.048683	9567.762920	385.133021	6460.143568	6377.572347	11750.246508	6314.829100	6523.516858	105143.963826	105131.641979	105146.428542
8887.565684	9199.313711	350.934906	9704.508935	5663.299946	9924.488764	9702.382572	393.198306	374.864947	392.059455	8511.150880	6891.400592	6760.733305	7606.219586	6109.980273	365.399065
7089.556100	6604.148563	6686.033843	6058.948205	13493.228907	6949.724745	6787.919843	370.158037	324.672864	481.176766	7593.472601	5979.389027	5867.116347	5700.198644	5392.562644	9119.629851
412.016157	411.393674	6298.126099	6241.545854	10221.144837	6268.592521	5580.948157	6506.349932	6132.992393	6159.064300	10646.765267	5982.998893	6162.594034	6015.023382	492.134077	616.507993
9259.582043	10041.803826	6141.962801	6304.087365	9213.913622	425.373213	7734.888411	337.218365	7561.635486	6995.534600	10037.269109	6226.719744	6104.388106	6070.758853	6271.641529	9873.816541
383.751301	409.962575	7390.463593	9436.381380	6599.392884	6853.378822	6656.832629	9185.165571	8943.716609	380.542679	6321.055486	684.238862	105141.499225	7006.437345	6864.128215	8150.266136
6174.690006	6302.592771	6258.057295	2223.367240	5806.195452	6317.488874	6714.118038	423.307502	6742.999367	7693.797153	329.678277	7225.257882	5647.096397	5806.701086	6358.425435	7135.189408
7319.901128	10953.470674	6976.839513	6419.372218	399.331843	889.471976	9240.661451	6495.384396	6937.930022	6282.064632	14296.198493	9482.611759	9505.653639	5401.763329	7466.028583	412.776853
6650.351745	6099.571699	6469.851405	6220.103706	9909.227514	10726.664723	7404.338344	6797.316375	408.420930	7066.701299	10626.363929	6624.570720	10389.091036	5896.516502	5516.463624	105156.921196
6492.465299	6955.179355	6003.790846	6460.733233	9597.369404	8150.578739	5952.008095	105144.596097	6397.021799	6867.903688	9484.557770	7594.300154	6989.515480	344.859186	366.758825	375.146589
7123.259303	5961.233652	10288.098950	6284.380479	6529.360135	6352.832942	6247.442306	6058.357828	5763.190309	5601.772138	5965.125538	6164.611824	6720.688871	6007.821375	9653.505360	6365.301855
5970.199780	5895.999431	341.626422	6006.637766	5999.139167	6285.010596	7674.639665	6248.216552	403.328993	404.961801	9803.649210	9936.662267	7678.412174	6657.950672	5351.042917	349.968556
7160.548678	400.884906	6441.703458	368.211390	6326.453803	7198.700300	7073.531089	340.150218	6619.092926	388.988460	412.152816	6174.092973	7732.757386	8002.407034	7394.297922	7084.803744
105154.455945	579.858513	385.949134	7209.563319	9220.774252	7663.931436	418.088845	6099.519317	8875.098426	358.656761	9500.817284	5531.223830	8342.766081	6184.202203	9950.189527	371.875372
386.065559	370.600625	6261.626653	6421.879622	6595.396247	365.386547	6769.240786	401.021511	376.812633	6396.390557	6808.144012	5919.437873	6975.881393	6474.163807	372.579838	390.379660
5593.072263	6590.089793	7387.213208	381.019849	386.350245	9671.526195	5845.977689	6416.414615	334.350566	7861.433945	7689.081983	7616.342644	6374.272801	372.820471	6639.371406	384.638527
5867.339068	8934.711226	6594.961660	5736.042976	6012.109675	6940.646591	7118.541990	6634.101867	8083.251542	6373.675235	6470.723664	7392.763959	6420.595344	7635.224628	349.775336	559.381149
6444.496504	5989.251164	6517.082320	5826.354177	9315.125074	6318.253352	6233.235732	6597.688653	10003.206549	9218.878678	5515.077360	392.284147	5668.269501	7312.799261	9179.497858	6475.134942
6139.968804	6517.815522	10039.908784	9645.272196	6828.677078	7076.793180	10611.532320	6434.271999	19675.471030	7585.217889	6886.273316	6641.919321	9665.566030	20344.458019	5717.224058	6137.628389
9580.443942	8003.395512	7393.255069	6319.987505	6693.987154	6238.014602	5683.025829	7132.805981	6444.751814	6171.255480	6352.087942	5892.206971	6588.743956	367.632612	367.899134	6059.363861
384.005796	6641.527723	373.176303	375.832323	6784.271927	843.196054	383.132374	445.624024	7760.452296	6806.053136	6407.607559	6815.282270	11667.416272	7424.286016	105154.455945	608.494489
6529.352760	7691.427147	6014.440457	9135.091983	406.627405	6492.473558	5811.106065	924.801832	6428.197552	5979.505780	105142.131424	8004.164130	6097.182642	6931.612061	9957.985934	383.444267
7046.961409	10206.196394	391.055854	9454.186136	9543.671898	10264.755881	8737.725338	6419.492927	9500.977719	9131.669303	9700.044274	9402.828452	6023.925696	7751.671211	695.609565	6160.200828
6007.140389	408.250913	6686.924001	5921.662449	6672.660532	6045.651512	6657.005470	5517.876446	6600.226628	10046.962691	6202.236306	9273.679712	6170.868838	6940.103117	7346.659864	349.993167
7133.026320	7257.676134	10108.173096	9459.560542	6040.582539	6393.160745	6682.282486	519.045023	7100.439589	6053.205404	6899.107938	10047.068579	6745.085101	376.402689	10382.123662	8822.748376
6522.994909	6180.672586	6022.905299	6843.758513	7216.854614	373.336740	6281.079714	369.102465	6499.092068	7380.031491	7145.504944	6445.464374	5533.328268	7299.319219	390.022180	339.179575
